#Wave		#Intensity
3201.183594	54720.734375
3200.482422	55138.042969
3199.781250	55235.199219
3199.080078	55114.824219
3198.378906	56042.550781
3197.677734	55861.480469
3196.975586	56104.535156
3196.274414	56012.585938
3195.572266	56373.078125
3194.870117	56441.386719
3194.167969	56726.886719
3193.465820	57047.886719
3192.763672	56863.289063
3192.061523	56483.003906
3191.359375	57565.378906
3190.656250	56747.484375
3189.953125	58395.019531
3189.250977	57018.882813
3188.547852	57122.503906
3187.844727	57930.035156
3187.140625	58488.445313
3186.437500	58382.054688
3185.734375	58588.394531
3185.030273	58336.355469
3184.326172	58098.609375
3183.623047	58496.664063
3182.918945	58851.964844
3182.214844	59501.804688
3181.509766	59132.675781
3180.805664	58941.125000
3180.100586	59164.796875
3179.396484	59892.156250
3178.691406	60385.148438
3177.986328	59973.621094
3177.281250	60487.691406
3176.576172	60537.160156
3175.871094	60069.109375
3175.166016	60933.726563
3174.459961	61227.566406
3173.753906	61021.789063
3173.048828	61659.074219
3172.342773	61750.761719
3171.636719	62384.148438
3170.930664	62429.648438
3170.223633	61990.218750
3169.517578	62488.738281
3168.810547	62357.277344
3168.104492	62583.152344
3167.397461	62770.042969
3166.690430	63497.914063
3165.983398	63447.675781
3165.276367	62669.234375
3164.569336	63909.214844
3163.861328	63887.195313
3163.154297	64041.835938
3162.446289	64440.160156
3161.738281	64774.765625
3161.030273	65017.437500
3160.322266	65122.328125
3159.614258	65587.234375
3158.905273	66355.492188
3158.197266	66110.734375
3157.488281	66543.453125
3156.780273	66584.468750
3156.071289	66798.281250
3155.362305	67001.429688
3154.653320	67617.000000
3153.943359	67943.304688
3153.234375	68146.132813
3152.525391	68556.789063
3151.815430	68858.078125
3151.105469	68285.695313
3150.395508	68770.046875
3149.685547	69655.640625
3148.975586	69843.851563
3148.265625	69926.390625
3147.554688	70121.515625
3146.844727	70552.312500
3146.133789	70940.742188
3145.422852	71357.171875
3144.711914	71667.937500
3144.000977	72045.398438
3143.290039	71828.601563
3142.579102	72381.640625
3141.867188	72245.687500
3141.156250	72752.765625
3140.444336	72904.851563
3139.732422	73190.343750
3139.020508	73373.898438
3138.308594	74157.773438
3137.596680	74435.859375
3136.883789	74583.984375
3136.171875	75321.593750
3135.458984	75455.468750
3134.746094	75992.695313
3134.033203	76354.367188
3133.320313	75821.703125
3132.607422	76996.671875
3131.894531	77035.460938
3131.181641	78364.000000
3130.467773	77708.695313
3129.753906	77340.906250
3129.041016	78787.765625
3128.327148	78651.070313
3127.612305	79235.757813
3126.898438	79351.093750
3126.184570	79984.453125
3125.469727	80684.070313
3124.755859	80473.648438
3124.041016	81869.132813
3123.326172	81707.546875
3122.611328	82287.429688
3121.896484	81814.617188
3121.181641	82338.335938
3120.465820	83029.640625
3119.750977	82979.804688
3119.035156	83335.296875
3118.320313	84246.132813
3117.604492	84646.679688
3116.888672	84467.359375
3116.171875	85971.070313
3115.456055	85707.781250
3114.740234	85587.695313
3114.023438	86305.187500
3113.306641	87542.304688
3112.589844	87254.492188
3111.874023	87364.398438
3111.156250	87666.062500
3110.439453	88602.179688
3109.722656	89255.585938
3109.004883	89026.960938
3108.288086	89735.804688
3107.570313	89803.320313
3106.852539	90083.296875
3106.134766	90136.781250
3105.416992	91074.734375
3104.699219	91618.921875
3103.980469	91149.945313
3103.262695	92410.875000
3102.543945	93222.460938
3101.825195	93424.898438
3101.106445	93070.710938
3100.387695	93398.304688
3099.668945	94379.500000
3098.949219	95402.054688
3098.230469	94811.375000
3097.510742	95513.750000
3096.791992	95621.679688
3096.072266	95833.789063
3095.352539	96994.085938
3094.632813	97313.531250
3093.912109	98202.304688
3093.192383	97844.437500
3092.471680	98895.921875
3091.751953	98340.234375
3091.031250	98301.742188
3090.310547	99040.343750
3089.589844	99463.039063
3088.869141	100374.554688
3088.147461	100415.453125
3087.426758	100657.398438
3086.705078	101346.367188
3085.984375	101522.210938
3085.262695	101694.515625
3084.541016	102261.664063
3083.819336	102929.054688
3083.096680	102335.703125
3082.375000	103546.406250
3081.652344	103738.937500
3080.930664	104547.468750
3080.208008	104590.945313
3079.485352	105277.929688
3078.762695	105618.742188
3078.040039	105897.171875
3077.316406	107036.523438
3076.593750	106432.976563
3075.870117	106576.289063
3075.147461	107666.500000
3074.423828	107529.640625
3073.700195	108242.710938
3072.976563	108264.671875
3072.251953	108518.015625
3071.528320	109361.718750
3070.803711	109545.718750
3070.080078	110009.234375
3069.355469	111549.320313
3068.630859	111494.726563
3067.906250	111274.562500
3067.181641	111775.359375
3066.456055	112024.218750
3065.731445	112679.843750
3065.005859	112990.500000
3064.281250	114452.242188
3063.555664	114328.242188
3062.830078	113935.531250
3062.104492	114486.859375
3061.377930	114772.773438
3060.652344	116122.656250
3059.925781	116773.117188
3059.200195	116755.523438
3058.473633	116675.968750
3057.747070	117195.203125
3057.020508	117707.367188
3056.293945	117648.312500
3055.566406	118284.015625
3054.839844	119308.046875
3054.112305	119565.023438
3053.385742	118904.109375
3052.658203	119037.328125
3051.930664	120201.351563
3051.203125	120581.640625
3050.474609	122085.015625
3049.747070	121984.007813
3049.018555	122116.531250
3048.291016	122506.476563
3047.562500	122264.703125
3046.833984	122846.656250
3046.105469	123946.515625
3045.376953	123656.570313
3044.647461	124862.195313
3043.918945	124517.312500
3043.189453	124247.976563
3042.459961	126087.039063
3041.730469	126513.296875
3041.000977	126781.750000
3040.271484	126207.242188
3039.541992	128284.398438
3038.812500	128264.671875
3038.082031	128875.039063
3037.351563	129094.867188
3036.621094	130050.601563
3035.890625	129876.531250
3035.160156	130157.632813
3034.429688	130955.257813
3033.699219	131691.015625
3032.967773	132662.484375
3032.237305	132248.703125
3031.505859	133021.421875
3030.774414	133311.875000
3030.042969	133366.406250
3029.311523	133113.375000
3028.579102	134749.703125
3027.847656	135726.187500
3027.115234	135517.250000
3026.382813	136329.343750
3025.651367	136212.531250
3024.918945	137061.734375
3024.185547	137497.687500
3023.453125	138291.734375
3022.720703	139327.703125
3021.987305	139650.437500
3021.254883	139284.171875
3020.521484	139869.328125
3019.788086	141119.000000
3019.054688	141921.734375
3018.320313	141541.671875
3017.586914	142217.953125
3016.853516	142825.859375
3016.119141	142748.953125
3015.384766	143925.203125
3014.650391	143671.078125
3013.916016	144465.468750
3013.181641	145034.953125
3012.447266	145580.390625
3011.711914	146506.687500
3010.977539	146966.625000
3010.242188	147746.078125
3009.506836	147698.937500
3008.771484	147532.828125
3008.036133	147951.437500
3007.300781	148325.687500
3006.564453	149787.140625
3005.829102	149960.484375
3005.092773	149987.687500
3004.356445	151206.906250
3003.620117	151858.625000
3002.883789	152666.281250
3002.147461	152743.859375
3001.411133	153415.296875
3000.673828	154198.453125
2999.937500	154584.421875
2999.200195	155133.031250
2998.462891	155359.281250
2997.725586	156063.500000
2996.988281	156452.203125
2996.250000	157501.687500
2995.512695	157886.578125
2994.774414	158372.968750
2994.037109	158872.734375
2993.298828	159165.718750
2992.560547	159458.578125
2991.822266	159981.546875
2991.083008	160551.718750
2990.344727	160949.062500
2989.605469	161525.609375
2988.867188	161912.468750
2988.127930	162275.500000
2987.388672	162344.171875
2986.649414	162876.062500
2985.910156	163174.468750
2985.169922	163611.359375
2984.430664	164054.828125
2983.690430	164413.656250
2982.950195	164623.718750
2982.209961	164945.156250
2981.469727	165344.125000
2980.729492	165408.687500
2979.989258	165706.156250
2979.248047	166006.875000
2978.507813	166226.500000
2977.766602	166422.406250
2977.025391	166641.859375
2976.284180	166854.468750
2975.542969	167033.281250
2974.801758	167245.734375
2974.059570	167390.687500
2973.318359	167478.281250
2972.576172	167596.156250
2971.833984	167687.046875
2971.091797	168030.515625
2970.349609	167946.140625
2969.607422	168141.265625
2968.864258	168255.515625
2968.122070	168362.984375
2967.378906	168433.390625
2966.635742	168426.375000
2965.892578	168685.125000
2965.149414	168792.406250
2964.406250	168849.203125
2963.663086	169050.562500
2962.918945	169009.781250
2962.175781	168965.640625
2961.431641	169156.765625
2960.687500	169159.640625
2959.943359	169296.890625
2959.199219	169118.359375
2958.454102	169493.968750
2957.709961	169557.187500
2956.964844	169610.312500
2956.219727	169337.843750
2955.475586	169760.093750
2954.730469	169799.718750
2953.984375	169691.703125
2953.239258	169603.859375
2952.494141	169666.937500
2951.748047	169723.265625
2951.001953	169903.593750
2950.255859	169762.125000
2949.509766	169821.734375
2948.763672	169831.078125
2948.017578	170014.578125
2947.271484	169879.843750
2946.524414	169875.750000
2945.777344	169814.734375
2945.031250	169850.796875
2944.284180	170030.750000
2943.536133	169946.296875
2942.789063	170065.921875
2942.041992	170108.578125
2941.293945	170224.781250
2940.546875	170257.343750
2939.798828	170259.812500
2939.050781	170222.156250
2938.302734	170174.484375
2937.554688	170237.062500
2936.805664	170216.109375
2936.057617	170265.296875
2935.308594	170417.968750
2934.559570	170303.500000
2933.810547	170295.875000
2933.061523	170248.187500
2932.312500	170263.921875
2931.563477	170366.375000
2930.813477	170448.781250
2930.064453	170254.328125
2929.314453	170296.703125
2928.564453	170202.343750
2927.814453	170414.687500
2927.064453	170287.015625
2926.314453	170216.015625
2925.563477	170664.734375
2924.812500	170313.906250
2924.062500	170329.500000
2923.311523	170408.359375
2922.560547	170101.015625
2921.809570	170133.265625
2921.057617	170278.640625
2920.306641	170171.093750
2919.554688	170303.093750
2918.803711	170395.125000
2918.051758	170098.046875
2917.299805	170219.984375
2916.547852	170202.265625
2915.794922	170207.812500
2915.042969	170366.187500
2914.290039	170281.984375
2913.538086	170274.187500
2912.785156	170332.828125
2912.032227	170112.500000
2911.279297	170380.281250
2910.525391	170060.437500
2909.772461	170145.593750
2909.018555	170147.734375
2908.265625	170183.062500
2907.511719	170045.890625
2906.757813	170233.750000
2906.003906	169920.875000
2905.250000	170068.890625
2904.495117	170080.953125
2903.741211	170152.656250
2902.986328	170174.625000
2902.231445	169977.953125
2901.476563	170056.234375
2900.721680	169968.906250
2899.966797	170037.218750
2899.211914	169939.984375
2898.456055	170230.000000
2897.700195	169884.578125
2896.945313	169992.531250
2896.189453	170126.890625
2895.433594	170059.453125
2894.676758	170084.609375
2893.920898	170000.671875
2893.164063	169943.187500
2892.408203	169935.296875
2891.651367	170033.125000
2890.894531	169906.281250
2890.137695	169971.031250
2889.380859	169725.343750
2888.623047	169955.171875
2887.866211	169772.281250
2887.108398	169873.296875
2886.351563	169904.968750
2885.593750	169850.828125
2884.835938	169968.234375
2884.077148	169871.218750
2883.319336	169919.328125
2882.560547	169957.515625
2881.802734	169857.234375
2881.043945	169786.640625
2880.285156	169772.093750
2879.526367	169961.781250
2878.767578	169716.625000
2878.008789	169807.453125
2877.249023	169592.015625
2876.489258	169643.312500
2875.730469	169780.171875
2874.970703	169782.031250
2874.210938	169688.468750
2873.450195	169973.250000
2872.690430	169702.062500
2871.930664	170045.921875
2871.169922	169896.453125
2870.409180	169635.265625
2869.648438	169811.296875
2868.887695	169727.671875
2868.126953	169601.343750
2867.366211	169613.015625
2866.604492	169637.812500
2865.843750	169757.828125
2865.082031	169608.578125
2864.320313	169574.250000
2863.558594	169592.453125
2862.796875	169489.218750
2862.034180	169566.468750
2861.272461	169614.140625
2860.509766	169579.828125
2859.748047	169483.203125
2858.985352	169471.843750
2858.222656	169440.812500
2857.458984	169501.546875
2856.696289	169463.968750
2855.933594	169347.765625
2855.169922	169369.156250
2854.406250	169328.312500
2853.642578	169326.765625
2852.878906	169331.765625
2852.115234	169461.109375
2851.351563	169246.828125
2850.586914	169418.671875
2849.823242	169201.171875
2849.058594	169350.046875
2848.293945	169381.156250
2847.529297	169281.453125
2846.764648	169266.781250
2845.999023	169274.984375
2845.234375	169462.875000
2844.468750	169101.875000
2843.703125	169070.875000
2842.938477	169062.734375
2842.171875	169119.906250
2841.406250	169180.312500
2840.640625	169227.625000
2839.874023	169079.125000
2839.108398	169008.968750
2838.341797	169265.031250
2837.575195	168953.515625
2836.808594	169173.609375
2836.041992	168999.140625
2835.274414	168981.171875
2834.507813	169220.687500
2833.740234	169303.687500
2832.973633	168917.531250
2832.206055	168948.421875
2831.438477	168930.453125
2830.669922	169032.953125
2829.902344	168832.656250
2829.133789	169136.937500
2828.366211	169027.781250
2827.597656	169019.546875
2826.829102	168796.593750
2826.060547	168905.468750
2825.291992	168962.265625
2824.522461	168788.187500
2823.753906	168939.250000
2822.984375	168826.968750
2822.214844	168987.703125
2821.445313	168771.484375
2820.675781	168990.609375
2819.906250	168975.812500
2819.136719	168957.781250
2818.366211	168673.515625
2817.595703	168804.828125
2816.826172	168773.828125
2816.055664	168752.562500
2815.285156	168770.218750
2814.513672	168638.671875
2813.743164	168666.046875
2812.971680	168628.578125
2812.201172	168630.015625
2811.429688	168563.375000
2810.658203	168623.125000
2809.886719	168608.343750
2809.114258	168648.625000
2808.342773	168656.484375
2807.570313	168563.953125
2806.798828	168662.468750
2806.026367	168560.250000
2805.253906	168661.953125
2804.481445	168482.093750
2803.708008	168544.937500
2802.935547	168685.390625
2802.162109	168563.812500
2801.389648	168568.375000
2800.616211	168414.531250
2799.842773	168732.640625
2799.069336	168378.437500
2798.294922	168573.640625
2797.521484	168471.546875
2796.747070	168582.671875
2795.972656	168516.140625
2795.199219	168394.718750
2794.424805	168344.375000
2793.649414	168507.046875
2792.875000	168401.812500
2792.100586	168370.812500
2791.325195	168443.046875
2790.549805	168231.437500
2789.774414	168303.656250
2788.999023	168221.093750
2788.223633	168261.031250
2787.448242	168120.484375
2786.671875	168295.750000
2785.895508	168277.640625
2785.120117	168211.234375
2784.343750	168235.000000
2783.567383	168200.796875
2782.790039	168002.421875
2782.013672	168167.812500
2781.236328	168098.218750
2780.459961	168282.812500
2779.682617	168129.578125
2778.905273	168143.625000
2778.127930	168157.671875
2777.350586	168065.593750
2776.572266	168005.703125
2775.794922	168032.593750
2775.016602	167950.203125
2774.238281	168201.968750
2773.459961	167872.250000
2772.681641	168062.890625
2771.903320	168006.234375
2771.124023	168000.937500
2770.345703	167918.609375
2769.566406	168115.500000
2768.787109	167891.984375
2768.007813	167784.046875
2767.228516	167881.390625
2766.449219	168046.046875
2765.668945	167957.343750
2764.888672	167907.125000
2764.109375	167965.906250
2763.329102	167918.890625
2762.548828	167859.078125
2761.768555	167863.359375
2760.987305	167729.906250
2760.207031	167823.828125
2759.425781	167898.515625
2758.644531	167771.500000
2757.863281	167753.343750
2757.082031	167751.187500
2756.300781	167749.015625
2755.519531	167740.437500
2754.737305	167757.437500
2753.955078	167774.437500
2753.173828	167596.406250
2752.391602	167600.625000
2751.608398	167572.875000
2750.826172	167676.125000
2750.043945	167469.468750
2749.260742	167566.296875
2748.478516	167650.312500
2747.695313	167648.078125
2746.912109	167642.640625
2746.127930	167570.187500
2745.344727	167695.593750
2744.561523	167514.671875
2743.777344	167566.656250
2742.993164	167411.312500
2742.208984	167686.468750
2741.424805	167400.468750
2740.640625	167449.203125
2739.856445	167523.421875
2739.071289	167540.250000
2738.287109	167525.218750
2737.501953	167535.656250
2736.716797	167476.031250
2735.931641	167425.968750
2735.146484	167283.593750
2734.360352	167475.453125
2733.575195	167240.843750
2732.789063	167289.453125
2732.002930	167395.281250
2731.216797	167240.296875
2730.430664	167145.781250
2729.644531	167143.468750
2728.857422	167236.515625
2728.071289	167116.609375
2727.284180	167174.656250
2726.497070	167283.500000
2725.709961	167135.031250
2724.922852	167119.984375
2724.135742	167000.171875
2723.347656	167153.375000
2722.560547	167211.296875
2721.772461	167088.343750
2720.984375	167060.578125
2720.196289	167020.140625
2719.408203	167135.109375
2718.619141	166939.296875
2717.831055	167123.968750
2717.041992	166975.750000
2716.252930	166944.828125
2715.463867	167043.828125
2714.674805	166990.718750
2713.885742	166981.968750
2713.096680	166716.703125
2712.306641	166859.953125
2711.516602	166930.343750
2710.726563	166905.765625
2709.936523	166802.062500
2709.146484	166663.593750
2708.356445	166895.250000
2707.565430	166839.031250
2706.775391	166823.921875
2705.984375	166717.140625
2705.193359	166882.218750
2704.402344	166592.156250
2703.611328	166807.734375
2702.819336	166678.875000
2702.028320	166603.765625
2701.236328	166819.203125
2700.444336	166605.140625
2699.653320	166738.406250
2698.860352	166615.968750
2698.068359	166607.156250
2697.276367	166708.781250
2696.483398	166602.156250
2695.690430	166517.640625
2694.898438	166546.671875
2694.105469	166622.968750
2693.311523	166566.843750
2692.518555	166693.515625
2691.725586	166397.921875
2690.931641	166351.296875
2690.137695	166597.609375
2689.343750	166503.718750
2688.549805	166419.296875
2687.755859	166394.703125
2686.961914	166486.578125
2686.166992	166417.921875
2685.372070	166280.062500
2684.578125	166148.531250
2683.783203	166268.656250
2682.987305	166618.265625
2682.192383	166335.828125
2681.397461	166257.781250
2680.601563	166160.921875
2679.805664	166566.828125
2679.010742	166224.875000
2678.213867	166178.296875
2677.417969	166241.656250
2676.622070	166063.203125
2675.825195	166405.921875
2675.029297	166058.015625
2674.232422	166067.953125
2673.435547	166181.421875
2672.638672	166188.187500
2671.841797	166113.406250
2671.043945	166051.187500
2670.247070	166318.156250
2669.449219	166183.812500
2668.651367	166143.531250
2667.853516	165968.515625
2667.055664	165990.921875
2666.257813	166019.578125
2665.458984	165994.968750
2664.661133	165970.375000
2663.862305	165939.515625
2663.063477	166083.937500
2662.264648	165874.687500
2661.465820	166081.625000
2660.666016	165997.562500
2659.867188	165963.562500
2659.067383	166004.609375
2658.267578	165839.296875
2657.467773	165880.343750
2656.667969	165799.484375
2655.868164	165643.640625
2655.067383	165803.390625
2654.267578	165828.765625
2653.466797	165673.000000
2652.666016	165795.156250
2651.865234	165714.359375
2651.064453	165786.515625
2650.262695	165630.828125
2649.461914	165684.234375
2648.660156	165547.343750
2647.858398	165541.468750
2647.056641	165647.859375
2646.254883	165744.843750
2645.453125	165570.593750
2644.651367	165754.796875
2643.848633	165455.968750
2643.045898	165805.218750
